File: data/PDMS/Tensile_pdms.csv
1,0
1.00428,996.035
1.00854,2970
1.01281,4720
1.01708,5860
1.02135,7770
1.025615,9600
1.02988,11150
1.03415,12880
1.03842,14450
1.04269,16050
1.04695,17620
1.05122,19280
1.05549,20810
1.05976,22150
1.06403,23780
1.06829,25480
1.07256,26720
1.07683,28360
1.0811,29460
1.085364,30770
1.08963,32190
1.0939,33230
1.09817,34790
1.10244,36100
1.1067,37240
1.11097,38860
1.11524,39660
1.11951,41190
1.123774,42470
1.12804,43850
1.13231,44810
1.13658,46390
1.14085,47560
1.14511,48860
1.14938,50060
1.15365,51260
1.15792,52650
1.16218,53820
1.16645,54700
1.17072,55960
1.17499,57240
1.17926,57840
1.183523,59340
1.18779,60620
1.19206,61450
1.19633,62830
1.20059,63760
1.20486,64650
1.20913,66020
1.2134,66840
1.21767,68140
1.221933,69040
1.2262,70250
1.23047,71080
1.23474,72110
1.239,73170
1.24327,74270
1.24754,75630
1.25181,76140
1.25608,77410
1.26034,78460
1.26461,79430
1.26888,80040
1.27315,81070
1.27741,82040
1.281682,83190
1.28595,83710
1.29022,84720
1.29449,85850
1.29875,87070
1.30302,87700
1.30729,88780
1.31156,89790
1.31582,90630
1.320092,91620
1.32436,92600
1.32863,93480
1.3329,94280
1.33716,94940
1.34143,95820
1.3457,96930
1.34997,97520
1.35423,98950
1.3585,99440
1.36277,100160
1.36704,101100
1.37131,102310
1.37557,103060
1.379841,103980
1.38411,104880
1.38838,105540
1.39264,106360
1.39691,107510
1.40118,108220
1.40545,109180
1.40972,110070
1.41398,110890
1.418251,111880
1.42252,112560
1.42679,113650
1.43105,114210
1.43532,115300
1.43959,116060
1.44386,117000
1.44813,117890
1.45239,118050
1.456661,119090
1.46093,120060
1.4652,120770
1.46946,121580
1.47373,122550
1.478,123170
1.48227,124230
1.48654,125030
1.4908,125670
1.49507,126400
1.49934,126950
1.50361,127850
1.50787,128780
1.51214,129620
1.51641,130250
1.52068,131470
1.52495,132070
1.52921,132790
1.53348,133810
1.53775,134210
1.54202,134900
1.54628,136060
1.55055,136630
1.55482,137780
1.55909,138730
1.56336,139140
1.56762,139830
1.57189,140860
1.576159,141590
1.58043,142130
1.58469,142930
1.58896,143870
1.59323,144480
1.5975,145510
1.60177,146290
1.60603,146790
1.6103,147600
1.614569,148450
1.61884,149090
1.6231,150230
1.62737,150550
1.63164,152140
1.63591,152300
1.64018,153510
1.64444,153630
1.64871,154750
1.652979,155400
1.65725,156130
1.66151,157120
1.66578,157650
1.67005,158380
1.674318,159350
1.67859,159940
1.68285,160850
1.68712,161420
1.69139,162240
1.69566,163120
1.69992,163750
1.70419,164770
1.70846,165500
1.712728,166150
1.717,167080
1.72126,167970
1.72553,168820
1.7298,169490
1.73407,170380
1.73833,170940
1.7426,171910
1.74687,172860
1.751138,173360
1.75541,174010
1.75967,175040
1.76394,175930
1.76821,176710
1.77248,177560
1.77674,178110
1.78101,179010
1.78528,179570
1.78955,180630
1.79382,181130
1.79808,182110
1.80235,182730
1.80662,183580
1.810887,184300
1.81515,185330
1.81942,186160
1.82369,186720
1.82796,187630
1.83223,188400
1.83649,188950
1.84076,190000
1.84503,190720
1.849297,191360
1.85356,192390
1.85783,193210
1.8621,194260
1.86637,194990
1.87064,195760
1.8749,196640
1.87917,197470
1.88344,198320
1.88771,199150
1.89197,199910
1.89624,200950
1.90051,201640
1.90478,202300
1.909046,203440
1.91331,204040
1.91758,205010
1.92185,206190
1.92612,206600
1.93038,207440
1.93465,208370
1.93892,208990
1.94319,210240
1.947456,210570
1.95172,211980
1.95599,213010
1.96026,213150
1.96453,214150
1.96879,215110
1.97306,216040
1.97733,216770
1.9816,217540
1.98587,218420
1.99013,219540
1.9944,220410
1.99867,221180
2.00294,222180
2.007205,222990
2.01147,223910
2.01574,224800
2.02001,225510
2.02428,226350
2.02854,227380
2.03281,228100